Optical Parameter Monitor 7.0.5319.1035

Power Meter,PM100D
Power Meter SN,P0046669
Sensor,S120C
Sensor SN,250305506
Sensor Type,Photodiode
Wavelength,532 nm
Range,Auto,range changed during the measurement.

Start of Measurement,2/2/2026 13:24:27
Elapsed Time,00:00:09:999
Samples,1694

--Statistics--
Minimum [W],0.00050163
Maximum [W],0.00092187
Mean [W],0.00085604
Standard Deviation [W],9.4286E-05
Ratio,1.838 : 1

--Graph Data--
Time (ms),Power (W)
0.000,0.00050163
4.000,0.00050212
7.000,0.00050244
11.000,0.00050261
15.000,0.00050274
19.000,0.00050274
22.000,0.00050235
47.000,0.00050231
59.000,0.00050225
62.000,0.00050424
66.000,0.00050492
69.000,0.00050538
73.000,0.00050567
99.000,0.00050795
102.000,0.00050828
105.000,0.00050929
109.000,0.00051023
112.000,0.00051115
117.000,0.00051225
123.000,0.00051408
128.000,0.00051515
132.000,0.00051564
136.000,0.00051642
139.000,0.00051665
146.000,0.00051809
149.000,0.00051893
152.000,0.00051955
156.000,0.00052082
159.000,0.00052236
162.000,0.00052359
165.000,0.00052493
168.000,0.0005263
171.000,0.00052728
200.000,0.00052851
206.000,0.00053845
209.000,0.00053995
212.000,0.00054171
216.000,0.00054354
219.000,0.00054533
222.000,0.00054663
247.000,0.00054849
252.000,0.00055673
255.000,0.00055801
258.000,0.0005596
261.000,0.00056078
265.000,0.0005627
268.000,0.00056449
271.000,0.00056648
297.000,0.00056785
301.000,0.00057622
304.000,0.00057704
307.000,0.00057779
314.000,0.00057964
317.000,0.00058104
320.000,0.00058258
324.000,0.00058398
349.000,0.0005886
352.000,0.0005888
355.000,0.00058906
359.000,0.00058965
362.000,0.00059014
365.000,0.00059102
369.000,0.00059183
372.000,0.0005931
400.000,0.00059441
403.000,0.00059923
406.000,0.00059946
409.000,0.00059968
413.000,0.00060027
416.000,0.00060128
420.000,0.00060164
423.000,0.00060268
426.000,0.00060337
430.000,0.00060483
433.000,0.00060529
436.000,0.00060643
440.000,0.00060695
444.000,0.00060777
447.000,0.00060786
450.000,0.00060809
453.000,0.00060848
459.000,0.00060894
462.000,0.0006091
467.000,0.00060959
471.000,0.00061011
498.000,0.0006106
502.000,0.00061617
505.000,0.00061617
508.000,0.00061627
511.000,0.00061647
515.000,0.00061673
518.000,0.00061679
521.000,0.0006166
546.000,0.00061702
550.000,0.0006221
554.000,0.00062243
558.000,0.00062276
561.000,0.00062331
565.000,0.00062324
568.000,0.00062311
571.000,0.00062406
600.000,0.00062412
603.000,0.00063188
607.000,0.0006325
610.000,0.00063305
614.000,0.0006339
618.000,0.00063426
621.000,0.00063468
646.000,0.00063553
650.000,0.00064397
653.000,0.00064459
657.000,0.00064602
660.000,0.00064697
663.000,0.00064804
667.000,0.00064856
670.000,0.00064896
699.000,0.00065032
702.000,0.00065902
706.000,0.00065994
713.000,0.00066248
716.000,0.00066362
720.000,0.00066414
723.000,0.00066473
727.000,0.00066577
731.000,0.00066642
734.000,0.00066737
738.000,0.00066766
742.000,0.00066909
745.000,0.00066984
749.000,0.00067131
753.000,0.00067239
756.000,0.00067382
760.000,0.00067512
764.000,0.00067656
768.000,0.00067766
799.000,0.00067848
802.000,0.00068565
806.000,0.00068659
809.000,0.0006877
813.000,0.00068923
816.000,0.00069008
820.000,0.00069138
823.000,0.0006921
849.000,0.00069507
857.000,0.0006967
860.000,0.00069761
864.000,0.00069865
867.000,0.00069953
871.000,0.00070061
898.000,0.00070142
902.000,0.00070292
906.000,0.00070403
909.000,0.00070481
913.000,0.00070579
948.000,0.0007097
952.000,0.00071097
955.000,0.00071165
958.000,0.00071208
962.000,0.00071283
968.000,0.00071455
972.000,0.00071586
1000.000,0.0007167
1004.000,0.00071967
1007.000,0.00072013
1011.000,0.00072114
1014.000,0.00072185
1017.000,0.00072299
1020.000,0.00072381
1025.000,0.00072495
1028.000,0.00072615
1032.000,0.00072716
1035.000,0.00072756
1038.000,0.00072798
1042.000,0.00072778
1045.000,0.00072863
1048.000,0.00072853
1052.000,0.00072896
1055.000,0.00072905
1058.000,0.00072928
1062.000,0.00073013
1065.000,0.00073098
1068.000,0.00073199
1072.000,0.00073277
1098.000,0.00073358
1101.000,0.00073873
1104.000,0.00073896
1107.000,0.00073919
1111.000,0.00074004
1114.000,0.00074085
1117.000,0.00074147
1120.000,0.00074212
1124.000,0.00074307
1149.000,0.00074916
1153.000,0.00074968
1157.000,0.00075027
1160.000,0.00075043
1164.000,0.00075134
1167.000,0.00075222
1171.000,0.00075307
1199.000,0.00075369
1202.000,0.00076105
1206.000,0.00076115
1209.000,0.00076151
1213.000,0.0007621
1216.000,0.00076229
1223.000,0.00076307
1248.000,0.00076409
1251.000,0.00077093
1255.000,0.00077158
1258.000,0.00077204
1262.000,0.00077207
1265.000,0.00077207
1268.000,0.00077249
1272.000,0.00077249
1297.000,0.00077337
1300.000,0.0007794
1306.000,0.00078002
1309.000,0.00078025
1312.000,0.00078041
1316.000,0.00078031
1319.000,0.00078038
1322.000,0.00078025
1326.000,0.00078041
1329.000,0.000781
1333.000,0.00078155
1336.000,0.00078237
1340.000,0.00078305
1343.000,0.00078413
1346.000,0.00078481
1350.000,0.0007853
1353.000,0.00078611
1356.000,0.00078654
1360.000,0.00078696
1363.000,0.00078693
1366.000,0.00078722
1370.000,0.00078719
1373.000,0.00078735
1401.000,0.00079133
1405.000,0.00079227
1408.000,0.00079286
1412.000,0.00079322
1415.000,0.00079325
1418.000,0.00079332
1421.000,0.00079305
1447.000,0.00079328
1451.000,0.00079582
1455.000,0.00079654
1458.000,0.00079719
1461.000,0.00079755
1465.000,0.00079794
1468.000,0.0007983
1471.000,0.00079811
1502.000,0.00080013
1505.000,0.00080052
1509.000,0.0008014
1512.000,0.00080211
1516.000,0.00080251
1519.000,0.00080247
1522.000,0.00080241
1548.000,0.0008026
1551.000,0.00080267
1555.000,0.0008029
1558.000,0.00080355
1562.000,0.00080459
1565.000,0.00080547
1568.000,0.00080573
1572.000,0.00080583
1599.000,0.00080632
1604.000,0.00080677
1607.000,0.00080743
1611.000,0.00080824
1614.000,0.00080922
1617.000,0.00081
1621.000,0.00081095
1625.000,0.00081134
1639.000,0.00081192
1642.000,0.00081173
1646.000,0.00081182
1649.000,0.00081192
1652.000,0.00081241
1656.000,0.00081274
1659.000,0.00081371
1663.000,0.00081433
1666.000,0.00081521
1669.000,0.00081642
1673.000,0.00081717
1698.000,0.00081753
1702.000,0.00081831
1705.000,0.00081899
1708.000,0.00081939
1712.000,0.00082007
1715.000,0.00082121
1719.000,0.00082219
1722.000,0.00082317
1747.000,0.00082411
1752.000,0.00082444
1758.000,0.00082506
1762.000,0.00082522
1765.000,0.00082571
1769.000,0.00082646
1772.000,0.00082763
1802.000,0.00082851
1805.000,0.00082975
1808.000,0.00083007
1812.000,0.00083043
1817.000,0.00083102
1848.000,0.00083222
1851.000,0.00083428
1854.000,0.00083385
1857.000,0.00083359
1861.000,0.00083395
1864.000,0.00083395
1867.000,0.00083428
1871.000,0.00083447
1898.000,0.00083516
1901.000,0.00083825
1904.000,0.00083767
1907.000,0.00083744
1911.000,0.00083688
1915.000,0.00083711
1918.000,0.00083721
1921.000,0.00083721
1925.000,0.00083793
1928.000,0.0008391
1932.000,0.00083982
1936.000,0.0008406
1939.000,0.00084119
1942.000,0.00084141
1945.000,0.00084164
1949.000,0.00084177
1953.000,0.00084148
1956.000,0.00084109
1959.000,0.00084047
1962.000,0.00084044
1965.000,0.00084037
1968.000,0.0008406
1972.000,0.00084073
2000.000,0.00084099
2004.000,0.00084578
2008.000,0.00084506
2014.000,0.00084487
2017.000,0.000845
2021.000,0.00084529
2046.000,0.00084594
2050.000,0.0008507
2054.000,0.00085086
2057.000,0.00085093
2061.000,0.00085103
2064.000,0.00085083
2068.000,0.00085116
2071.000,0.00085152
2097.000,0.00085191
2101.000,0.00085738
2104.000,0.00085771
2107.000,0.00085784
2113.000,0.00085807
2116.000,0.00085829
2119.000,0.00085852
2122.000,0.00085842
2158.000,0.00086455
2161.000,0.00086462
2165.000,0.00086484
2168.000,0.00086455
2172.000,0.00086484
2200.000,0.00086494
2203.000,0.00086856
2207.000,0.00086898
2210.000,0.00086944
2213.000,0.00086957
2216.000,0.00086976
2220.000,0.00086986
2223.000,0.0008698
2227.000,0.00086983
2230.000,0.00086983
2234.000,0.00087012
2237.000,0.00087058
2241.000,0.00087123
2244.000,0.00087159
2248.000,0.00087195
2251.000,0.0008728
2254.000,0.00087319
2258.000,0.00087381
2261.000,0.000874
2267.000,0.00087452
2270.000,0.00087465
2273.000,0.00087439
2299.000,0.0008754
2303.000,0.00087609
2306.000,0.00087687
2309.000,0.00087716
2313.000,0.00087749
2316.000,0.00087755
2320.000,0.00087755
2323.000,0.00087768
2349.000,0.00087778
2353.000,0.00087918
2356.000,0.00087974
2360.000,0.00088019
2363.000,0.00088091
2366.000,0.00088114
2370.000,0.00088133
2373.000,0.00088153
2402.000,0.00088205
2405.000,0.00088238
2408.000,0.00088286
2412.000,0.00088348
2416.000,0.00088417
2419.000,0.00088443
2422.000,0.00088446
2448.000,0.00088466
2451.000,0.00088531
2455.000,0.00088567
2458.000,0.00088567
2464.000,0.00088655
2467.000,0.00088717
2470.000,0.00088743
2474.000,0.00088801
2501.000,0.00088938
2505.000,0.00088971
2508.000,0.00088981
2511.000,0.00088984
2515.000,0.00089039
2520.000,0.00089101
2524.000,0.00089143
2528.000,0.00089163
2531.000,0.00089176
2535.000,0.00089192
2538.000,0.00089218
2541.000,0.00089218
2544.000,0.00089196
2548.000,0.00089183
2551.000,0.00089183
2555.000,0.0008915
2558.000,0.00089173
2561.000,0.00089179
2565.000,0.00089173
2568.000,0.00089212
2571.000,0.00089238
2599.000,0.00089297
2603.000,0.00089329
2606.000,0.00089359
2609.000,0.00089339
2613.000,0.00089326
2616.000,0.00089329
2619.000,0.00089355
2623.000,0.00089394
2649.000,0.00089417
2653.000,0.00089453
2656.000,0.00089463
2659.000,0.00089466
2663.000,0.00089476
2666.000,0.00089486
2669.000,0.00089473
2672.000,0.00089473
2699.000,0.00089518
2703.000,0.00089541
2706.000,0.00089551
2709.000,0.00089544
2713.000,0.00089561
2716.000,0.0008959
2721.000,0.0008957
2748.000,0.0008959
2752.000,0.00089622
2755.000,0.00089596
2759.000,0.00089616
2762.000,0.00089583
2765.000,0.00089613
2769.000,0.00089613
2800.000,0.0008958
2804.000,0.00089642
2807.000,0.00089626
2810.000,0.00089639
2814.000,0.00089655
2818.000,0.00089652
2821.000,0.00089619
2825.000,0.00089632
2829.000,0.00089609
2832.000,0.00089606
2836.000,0.00089593
2839.000,0.00089596
2843.000,0.0008957
2846.000,0.00089596
2849.000,0.00089609
2853.000,0.00089616
2856.000,0.00089639
2860.000,0.00089658
2863.000,0.00089662
2866.000,0.00089671
2870.000,0.00089632
2873.000,0.00089626
2899.000,0.0008959
2903.000,0.00089583
2907.000,0.0008957
2910.000,0.00089551
2913.000,0.0008958
2917.000,0.00089583
2920.000,0.00089518
2924.000,0.00089518
2949.000,0.00089342
2954.000,0.00089372
2957.000,0.00089362
2960.000,0.00089385
2964.000,0.00089411
2967.000,0.00089394
2970.000,0.00089427
2999.000,0.00089385
3003.000,0.00089261
3006.000,0.00089267
3009.000,0.00089241
3013.000,0.00089323
3016.000,0.00089323
3019.000,0.00089359
3023.000,0.00089346
3052.000,0.00089271
3055.000,0.00089238
3058.000,0.00089258
3061.000,0.00089274
3065.000,0.00089271
3068.000,0.00089323
3071.000,0.00089326
3099.000,0.00089346
3102.000,0.00089202
3106.000,0.00089205
3109.000,0.00089192
3112.000,0.00089225
3115.000,0.00089222
3118.000,0.00089225
3121.000,0.00089235
3125.000,0.00089264
3128.000,0.00089287
3132.000,0.00089284
3135.000,0.0008931
3138.000,0.000893
3142.000,0.00089313
3145.000,0.00089284
3148.000,0.00089251
3152.000,0.00089215
3155.000,0.0008917
3158.000,0.00089192
3162.000,0.0008917
3165.000,0.00089192
3168.000,0.00089166
3172.000,0.00089199
3200.000,0.00089261
3204.000,0.00089147
3207.000,0.00089108
3211.000,0.00089104
3214.000,0.00089108
3217.000,0.00089078
3221.000,0.00089069
3247.000,0.00089082
3250.000,0.00089183
3255.000,0.00089104
3258.000,0.00089069
3261.000,0.00089046
3264.000,0.00089088
3267.000,0.00089069
3270.000,0.00089059
3274.000,0.00089078
3300.000,0.000893
3307.000,0.00089186
3310.000,0.00089143
3314.000,0.00089114
3317.000,0.00089134
3321.000,0.00089134
3348.000,0.0008913
3351.000,0.00089443
3354.000,0.00089424
3367.000,0.00089323
3370.000,0.00089352
3399.000,0.00089372
3402.000,0.00089733
3406.000,0.00089714
3409.000,0.00089691
3412.000,0.00089668
3415.000,0.00089649
3419.000,0.00089655
3422.000,0.00089684
3426.000,0.00089697
3429.000,0.00089737
3432.000,0.00089782
3436.000,0.00089834
3439.000,0.00089926
3443.000,0.00089955
3446.000,0.00090004
3449.000,0.00090023
3452.000,0.00090043
3456.000,0.00090102
3460.000,0.00090115
3463.000,0.00090085
3467.000,0.00090088
3470.000,0.00090102
3498.000,0.00090115
3502.000,0.00090502
3506.000,0.00090577
3509.000,0.0009059
3512.000,0.00090607
3516.000,0.00090561
3519.000,0.0009061
3523.000,0.00090594
3548.000,0.00090581
3553.000,0.00090897
3556.000,0.00090939
3562.000,0.00090972
3565.000,0.0009103
3568.000,0.00091017
3572.000,0.00091014
3601.000,0.00090929
3605.000,0.00091177
3608.000,0.00091219
3612.000,0.00091268
3615.000,0.00091252
3618.000,0.00091265
3622.000,0.00091265
3648.000,0.00091226
3651.000,0.00091255
3655.000,0.00091317
3658.000,0.0009134
3661.000,0.00091412
3664.000,0.00091425
3668.000,0.00091405
3672.000,0.00091441
3698.000,0.00091421
3701.000,0.00091454
3704.000,0.0009146
3708.000,0.00091548
3711.000,0.00091581
3714.000,0.00091656
3718.000,0.00091666
3721.000,0.00091692
3725.000,0.00091689
3728.000,0.00091698
3735.000,0.00091643
3738.000,0.00091614
3741.000,0.00091594
3745.000,0.00091607
3749.000,0.00091578
3752.000,0.00091601
3755.000,0.00091643
3758.000,0.00091682
3762.000,0.00091734
3765.000,0.0009177
3768.000,0.00091783
3772.000,0.00091767
3800.000,0.00091819
3804.000,0.00091666
3807.000,0.00091682
3811.000,0.00091767
3817.000,0.00091855
3821.000,0.00091874
3847.000,0.0009191
3850.000,0.00091776
3854.000,0.00091763
3858.000,0.0009176
3862.000,0.00091806
3865.000,0.00091861
3868.000,0.0009193
3872.000,0.00091966
3898.000,0.00092008
3902.000,0.00091851
3905.000,0.00091848
3908.000,0.00091848
3912.000,0.00091868
3916.000,0.00091881
3919.000,0.00091962
3922.000,0.00091998
3949.000,0.0009206
3953.000,0.00091949
3956.000,0.00091949
3959.000,0.00091923
3963.000,0.00091936
3966.000,0.00091946
3970.000,0.00091988
3999.000,0.00092086
4002.000,0.00091975
4005.000,0.00091949
4008.000,0.00091952
4012.000,0.00091926
4015.000,0.00091868
4018.000,0.00091871
4021.000,0.00091939
4025.000,0.00092011
4028.000,0.00092096
4032.000,0.00092158
4035.000,0.00092128
4039.000,0.00092151
4042.000,0.00092168
4045.000,0.00092187
4048.000,0.00092135
4052.000,0.00092073
4055.000,0.00092005
4058.000,0.00091982
4062.000,0.00091998
4065.000,0.00091985
4071.000,0.00091949
4096.000,0.00091998
4100.000,0.00092102
4104.000,0.00092057
4107.000,0.00092005
4110.000,0.00091995
4113.000,0.00091992
4116.000,0.00091956
4119.000,0.00091923
4122.000,0.00091917
4148.000,0.00091926
4152.000,0.00092122
4156.000,0.00092083
4159.000,0.00092031
4162.000,0.00091975
4166.000,0.00091966
4169.000,0.0009191
4172.000,0.00091858
4202.000,0.00091829
4205.000,0.00091992
4208.000,0.00091966
4212.000,0.00091881
4215.000,0.00091845
4218.000,0.00091799
4222.000,0.00091767
4248.000,0.00091728
4251.000,0.00091923
4254.000,0.0009193
4265.000,0.00091904
4268.000,0.00091773
4272.000,0.00091721
4297.000,0.00091672
4301.000,0.00091878
4304.000,0.00091891
4308.000,0.00091871
4311.000,0.00091871
4314.000,0.00091842
4317.000,0.00091809
4321.000,0.00091737
4329.000,0.00091659
4333.000,0.00091633
4336.000,0.00091623
4339.000,0.00091633
4343.000,0.00091718
4346.000,0.00091757
4349.000,0.00091816
4352.000,0.00091832
4356.000,0.00091874
4359.000,0.00091907
4362.000,0.000919
4366.000,0.00091894
4369.000,0.00091855
4372.000,0.00091832
4401.000,0.0009176
4404.000,0.00091809
4407.000,0.00091868
4411.000,0.00091884
4414.000,0.000919
4417.000,0.00091894
4420.000,0.00091861
4424.000,0.00091806
4449.000,0.00091685
4454.000,0.00091744
4457.000,0.00091803
4461.000,0.00091825
4465.000,0.00091874
4468.000,0.00091913
4471.000,0.00091871
4500.000,0.00091851
4503.000,0.00091702
4506.000,0.0009176
4510.000,0.00091786
4514.000,0.00091832
4517.000,0.00091845
4520.000,0.00091842
4546.000,0.00091842
4549.000,0.00091636
4553.000,0.00091643
4556.000,0.00091659
4559.000,0.00091685
4562.000,0.00091711
4601.000,0.00091679
4607.000,0.00091653
4610.000,0.00091682
4614.000,0.00091754
4617.000,0.00091757
4620.000,0.00091793
4624.000,0.00091809
4628.000,0.00091832
4632.000,0.00091848
4635.000,0.00091848
4638.000,0.00091832
4641.000,0.0009177
4645.000,0.00091741
4648.000,0.00091718
4651.000,0.00091689
4655.000,0.0009163
4658.000,0.00091584
4661.000,0.00091607
4665.000,0.0009164
4668.000,0.00091675
4671.000,0.00091682
4697.000,0.00091744
4700.000,0.00091721
4704.000,0.00091689
4707.000,0.00091646
4710.000,0.00091601
4714.000,0.00091601
4717.000,0.00091646
4720.000,0.00091675
4746.000,0.00091715
4749.000,0.0009177
4754.000,0.00091705
4757.000,0.00091659
4763.000,0.00091568
4766.000,0.00091555
4770.000,0.00091565
4773.000,0.00091636
4802.000,0.00091734
4806.000,0.00091702
4809.000,0.00091672
4813.000,0.00091636
4816.000,0.00091617
4819.000,0.0009161
4823.000,0.00091604
4850.000,0.00091659
4854.000,0.00091747
4860.000,0.00091675
4864.000,0.0009163
4867.000,0.00091539
4870.000,0.00091529
4896.000,0.00091545
4900.000,0.0009179
4903.000,0.00091763
4907.000,0.00091715
4910.000,0.00091705
4914.000,0.00091702
4917.000,0.00091604
4920.000,0.00091555
4924.000,0.00091535
4928.000,0.00091552
4932.000,0.00091574
4935.000,0.00091617
4938.000,0.00091597
4941.000,0.00091669
4945.000,0.00091757
4948.000,0.00091786
4951.000,0.00091803
4955.000,0.0009178
4958.000,0.00091776
4962.000,0.00091754
4965.000,0.00091689
4968.000,0.00091636
4972.000,0.00091529
5001.000,0.00091464
5004.000,0.00091666
5007.000,0.00091636
5011.000,0.00091597
5014.000,0.0009161
5017.000,0.00091539
5021.000,0.0009149
5046.000,0.00091415
5050.000,0.00091493
5054.000,0.00091519
5057.000,0.00091516
5060.000,0.00091486
5064.000,0.00091483
5067.000,0.00091418
5070.000,0.00091369
5097.000,0.00091301
5100.000,0.00091223
5104.000,0.00091275
5107.000,0.00091307
5114.000,0.0009133
5117.000,0.00091281
5120.000,0.00091255
5146.000,0.00091187
5150.000,0.00091063
5153.000,0.00091115
5156.000,0.0009117
5159.000,0.00091232
5163.000,0.00091239
5166.000,0.00091216
5169.000,0.00091193
5173.000,0.00091157
5201.000,0.00090962
5207.000,0.00090985
5210.000,0.00091076
5214.000,0.00091122
5217.000,0.00091135
5220.000,0.00091131
5226.000,0.00091112
5230.000,0.00091056
5234.000,0.00091014
5237.000,0.00090968
5241.000,0.00090936
5244.000,0.00090929
5247.000,0.00090932
5251.000,0.00090929
5254.000,0.00090942
5257.000,0.00090998
5261.000,0.00091073
5264.000,0.00091157
5268.000,0.00091232
5271.000,0.00091271
5297.000,0.00091333
5300.000,0.00091568
5304.000,0.00091607
5307.000,0.00091675
5310.000,0.0009176
5314.000,0.00091819
5317.000,0.00091923
5320.000,0.00091956
5346.000,0.00092021
5349.000,0.00091874
5354.000,0.00091848
5357.000,0.00091864
5360.000,0.00091884
5368.000,0.00091988
5372.000,0.00092027
5401.000,0.00092063
5404.000,0.00091871
5407.000,0.00091864
5410.000,0.00091871
5414.000,0.00091907
5417.000,0.00091913
5421.000,0.0009191
5446.000,0.0009193
5450.000,0.00091926
5454.000,0.00091907
5457.000,0.00091829
5460.000,0.00091855
5464.000,0.00091835
5467.000,0.00091829
5470.000,0.00091848
5498.000,0.00091845
5501.000,0.00091933
5504.000,0.00091887
5508.000,0.00091835
5511.000,0.00091796
5514.000,0.00091737
5518.000,0.00091721
5521.000,0.00091702
5525.000,0.00091702
5528.000,0.00091741
5532.000,0.0009179
5535.000,0.00091871
5538.000,0.00091926
5542.000,0.00091907
5545.000,0.00091939
5548.000,0.00091952
5552.000,0.0009192
5555.000,0.00091884
5558.000,0.00091803
5561.000,0.00091744
5565.000,0.00091692
5568.000,0.00091666
5571.000,0.00091695
5600.000,0.00091682
5604.000,0.00091975
5607.000,0.00091933
5610.000,0.00091874
5614.000,0.00091822
5617.000,0.0009177
5623.000,0.00091737
5649.000,0.00091982
5653.000,0.00091962
5656.000,0.00091959
5659.000,0.00091878
5663.000,0.00091838
5666.000,0.00091754
5670.000,0.00091675
5673.000,0.00091679
5699.000,0.0009191
5703.000,0.00091923
5706.000,0.00091933
5710.000,0.00091897
5714.000,0.00091845
5717.000,0.00091731
5720.000,0.00091685
5746.000,0.00091607
5750.000,0.00091698
5753.000,0.00091689
5757.000,0.00091685
5760.000,0.00091666
5764.000,0.00091617
5767.000,0.00091535
5771.000,0.00091428
5811.000,0.00091122
5814.000,0.00091076
5818.000,0.00091007
5821.000,0.00090851
5825.000,0.0009074
5828.000,0.00090613
5832.000,0.00090489
5835.000,0.00090395
5838.000,0.00090294
5842.000,0.00090261
5845.000,0.00090206
5849.000,0.00090209
5852.000,0.00090206
5855.000,0.00090193
5859.000,0.00090157
5862.000,0.00090088
5865.000,0.00090023
5869.000,0.00089965
5872.000,0.00089805
5901.000,0.00089033
5904.000,0.00089065
5908.000,0.0008902
5911.000,0.00089
5915.000,0.00088987
5918.000,0.00088932
5922.000,0.00088873
5947.000,0.00088788
5950.000,0.00088234
5954.000,0.00088244
5958.000,0.00088267
5961.000,0.00088264
5966.000,0.00088257
5969.000,0.00088215
5972.000,0.00088182
6001.000,0.00088146
6005.000,0.00087524
6008.000,0.00087537
6012.000,0.00087576
6015.000,0.00087618
6018.000,0.00087628
6021.000,0.00087612
6047.000,0.00087563
6051.000,0.00086976
6054.000,0.00086937
6057.000,0.00086931
6061.000,0.00086947
6064.000,0.00086937
6068.000,0.00086996
6072.000,0.0008696
6097.000,0.0008695
6101.000,0.00086364
6104.000,0.00086354
6107.000,0.00086351
6110.000,0.00086331
6114.000,0.00086351
6117.000,0.00086387
6120.000,0.00086439
6124.000,0.00086422
6132.000,0.00086409
6136.000,0.00086325
6139.000,0.00086266
6142.000,0.00086211
6146.000,0.00086136
6149.000,0.00086064
6155.000,0.00086002
6158.000,0.0008596
6161.000,0.00085937
6164.000,0.0008593
6168.000,0.0008593
6171.000,0.00085921
6199.000,0.00085921
6203.000,0.00085399
6206.000,0.00085301
6210.000,0.00085236
6213.000,0.00085174
6216.000,0.00085145
6220.000,0.00085106
6223.000,0.00085126
6249.000,0.00084695
6253.000,0.000845
6257.000,0.00084321
6260.000,0.00084138
6264.000,0.00083975
6267.000,0.00083763
6270.000,0.00083623
6274.000,0.00083467
6300.000,0.00082137
6304.000,0.0008189
6307.000,0.00081671
6311.000,0.00081521
6314.000,0.00081401
6317.000,0.00081303
6321.000,0.00081238
6347.000,0.00081192
6350.000,0.00081068
6354.000,0.00081042
6357.000,0.00080941
6360.000,0.00080873
6364.000,0.00080818
6367.000,0.00080775
6370.000,0.00080716
6399.000,0.0008072
6403.000,0.00080664
6409.000,0.00080554
6412.000,0.00080482
6416.000,0.00080413
6419.000,0.00080365
6422.000,0.00080361
6426.000,0.00080338
6429.000,0.00080338
6433.000,0.00080335
6437.000,0.00080381
6440.000,0.0008042
6444.000,0.00080413
6447.000,0.00080449
6454.000,0.00080417
6458.000,0.00080387
6461.000,0.00080338
6465.000,0.00080257
6468.000,0.00080205
6472.000,0.00080153
6502.000,0.00080136
6505.000,0.00080237
6509.000,0.00080237
6512.000,0.00080231
6515.000,0.00080189
6518.000,0.0008013
6522.000,0.00080101
6548.000,0.00080097
6552.000,0.00080205
6555.000,0.00080237
6559.000,0.00080293
6562.000,0.00080296
6566.000,0.00080286
6569.000,0.00080247
6572.000,0.00080251
6601.000,0.00080244
6605.000,0.00080322
6608.000,0.00080397
6612.000,0.00080446
6615.000,0.00080527
6618.000,0.00080531
6621.000,0.00080537
6647.000,0.00080524
6655.000,0.00080919
6658.000,0.00080993
6664.000,0.00081143
6667.000,0.00081186
6671.000,0.00081212
6697.000,0.00081196
6700.000,0.00081052
6703.000,0.00081078
6706.000,0.00081147
6709.000,0.00081189
6713.000,0.00081238
6716.000,0.0008129
6720.000,0.00081267
6723.000,0.00081287
6727.000,0.00081251
6730.000,0.00081228
6734.000,0.00081192
6738.000,0.00081134
6741.000,0.00081095
6745.000,0.00081059
6748.000,0.00081052
6751.000,0.00081072
6755.000,0.00081075
6758.000,0.00081121
6761.000,0.00081189
6765.000,0.00081215
6768.000,0.00081251
6771.000,0.00081316
6800.000,0.00081323
6804.000,0.00081121
6811.000,0.00081199
6816.000,0.0008127
6819.000,0.00081274
6823.000,0.00081329
6848.000,0.00081137
6853.000,0.00081085
6856.000,0.00081055
6860.000,0.00081081
6866.000,0.00081163
6870.000,0.00081202
6900.000,0.00081251
6903.000,0.00081186
6906.000,0.00081143
6910.000,0.00081173
6913.000,0.00081163
6919.000,0.00081238
6923.000,0.00081316
6949.000,0.00081362
6952.000,0.00081479
6955.000,0.00081495
6959.000,0.00081508
6962.000,0.00081547
6966.000,0.00081619
6969.000,0.00081717
6974.000,0.00081805
7001.000,0.00082483
7006.000,0.00082571
7020.000,0.00082919
7024.000,0.00083033
7028.000,0.00083206
7032.000,0.00083346
7035.000,0.00083464
7038.000,0.00083604
7042.000,0.00083744
7045.000,0.00083835
7048.000,0.00083913
7052.000,0.00083985
7055.000,0.00084018
7058.000,0.00084112
7062.000,0.00084141
7065.000,0.00084226
7069.000,0.00084285
7072.000,0.00084373
7098.000,0.00084457
7102.000,0.00085367
7105.000,0.00085445
7108.000,0.00085477
7111.000,0.00085552
7115.000,0.00085608
7118.000,0.00085666
7122.000,0.00085715
7147.000,0.0008581
7151.000,0.00086563
7155.000,0.00086569
7158.000,0.00086592
7161.000,0.00086621
7165.000,0.00086638
7168.000,0.00086677
7200.000,0.00086703
7204.000,0.00087325
7207.000,0.00087364
7210.000,0.00087338
7214.000,0.00087341
7217.000,0.00087371
7221.000,0.00087338
7246.000,0.00087315
7250.000,0.00087661
7254.000,0.00087703
7257.000,0.00087745
7260.000,0.00087768
7264.000,0.00087765
7267.000,0.00087723
7271.000,0.00087703
7297.000,0.00087706
7300.000,0.00087935
7304.000,0.00087983
7309.000,0.00088117
7312.000,0.00088133
7316.000,0.00088133
7319.000,0.00088137
7322.000,0.00088163
7326.000,0.00088153
7329.000,0.00088137
7333.000,0.0008813
7336.000,0.00088163
7340.000,0.00088234
7344.000,0.00088257
7347.000,0.00088322
7350.000,0.00088368
7354.000,0.00088446
7357.000,0.00088544
7360.000,0.00088612
7363.000,0.00088668
7366.000,0.00088671
7369.000,0.00088671
7373.000,0.00088668
7401.000,0.00088658
7405.000,0.00088756
7408.000,0.00088824
7412.000,0.00088902
7415.000,0.00088945
7420.000,0.00088932
7446.000,0.00088935
7453.000,0.00088958
7456.000,0.0008901
7459.000,0.00089137
7462.000,0.00089183
7466.000,0.00089225
7469.000,0.00089264
7472.000,0.00089293
7501.000,0.000893
7504.000,0.00089346
7507.000,0.00089352
7511.000,0.0008943
7515.000,0.00089499
7518.000,0.00089567
7521.000,0.00089583
7547.000,0.00089603
7550.000,0.00089541
7554.000,0.00089492
7557.000,0.00089561
7560.000,0.000896
7564.000,0.00089665
7567.000,0.0008972
7570.000,0.00089779
7599.000,0.00089864
7602.000,0.00089782
7606.000,0.00089789
7609.000,0.00089818
7612.000,0.00089873
7616.000,0.00089896
7619.000,0.00089997
7622.000,0.00090043
7626.000,0.00090085
7629.000,0.00090199
7633.000,0.00090167
7636.000,0.00090154
7640.000,0.0009018
7643.000,0.00090176
7646.000,0.00090137
7650.000,0.00090098
7653.000,0.00090072
7656.000,0.00090066
7660.000,0.00090108
7663.000,0.00090115
7666.000,0.00090154
7669.000,0.00090186
7673.000,0.00090232
7699.000,0.000903
7702.000,0.00090297
7708.000,0.00090219
7711.000,0.00090245
7715.000,0.00090242
7718.000,0.00090255
7721.000,0.00090268
7747.000,0.00090291
7750.000,0.00090499
7754.000,0.00090457
7758.000,0.00090418
7761.000,0.00090356
7764.000,0.00090385
7767.000,0.00090405
7770.000,0.00090408
7773.000,0.0009044
7803.000,0.00090665
7806.000,0.00090623
7809.000,0.00090607
7813.000,0.00090568
7816.000,0.00090548
7819.000,0.00090545
7823.000,0.00090525
7851.000,0.00090512
7854.000,0.00090734
7858.000,0.00090721
7861.000,0.00090698
7864.000,0.00090672
7867.000,0.00090642
7871.000,0.00090616
7897.000,0.00090616
7900.000,0.00090848
7904.000,0.00090848
7907.000,0.00090835
7910.000,0.00090871
7914.000,0.00090822
7917.000,0.00090796
7921.000,0.0009074
7924.000,0.00090721
7927.000,0.00090721
7931.000,0.00090753
7935.000,0.00090776
7938.000,0.00090766
7943.000,0.00090838
7946.000,0.00090867
7950.000,0.00090923
7953.000,0.00090893
7956.000,0.00090887
7962.000,0.00090903
7966.000,0.00090903
7969.000,0.00090874
7972.000,0.00090835
8001.000,0.00090812
8005.000,0.00090965
8008.000,0.00090946
8011.000,0.00090978
8015.000,0.00090978
8018.000,0.00090936
8021.000,0.0009091
8047.000,0.00090848
8051.000,0.0009091
8055.000,0.00090949
8058.000,0.00090946
8062.000,0.00090942
8065.000,0.00090962
8069.000,0.00090985
8072.000,0.00090942
8099.000,0.00090919
8102.000,0.00090887
8105.000,0.00090929
8108.000,0.00090949
8112.000,0.00090942
8115.000,0.00090978
8119.000,0.00091004
8122.000,0.00091011
8148.000,0.00090988
8151.000,0.00090828
8154.000,0.00090887
8158.000,0.00090906
8161.000,0.00090919
8164.000,0.00090942
8167.000,0.00091004
8171.000,0.00091043
8199.000,0.0009104
8202.000,0.00090822
8206.000,0.00090864
8209.000,0.00090884
8215.000,0.00090972
8228.000,0.00091138
8232.000,0.00091089
8235.000,0.00091037
8239.000,0.00090991
8242.000,0.00090962
8245.000,0.00090952
8249.000,0.00090874
8252.000,0.00090831
8255.000,0.00090884
8259.000,0.0009088
8262.000,0.00090946
8265.000,0.00090998
8269.000,0.00091043
8272.000,0.0009103
8298.000,0.00091112
8301.000,0.00090936
8305.000,0.00090893
8308.000,0.00090913
8311.000,0.00090929
8315.000,0.00090994
8321.000,0.00091056
8348.000,0.00091105
8353.000,0.00090978
8356.000,0.00090985
8359.000,0.00090965
8363.000,0.00091001
8366.000,0.00091014
8369.000,0.00091063
8373.000,0.00091112
8401.000,0.00091135
8405.000,0.00091024
8408.000,0.0009103
8411.000,0.00091007
8415.000,0.00091043
8418.000,0.0009106
8421.000,0.00091086
8447.000,0.00091092
8450.000,0.0009117
8454.000,0.00091118
8457.000,0.00091089
8460.000,0.00091095
8464.000,0.00091073
8470.000,0.00091069
8473.000,0.00091069
8500.000,0.00091255
8504.000,0.00091206
8508.000,0.00091154
8512.000,0.00091154
8515.000,0.00091125
8519.000,0.00091086
8522.000,0.00091063
8526.000,0.00091073
8529.000,0.00091115
8533.000,0.00091135
8536.000,0.00091183
8540.000,0.00091236
8543.000,0.00091255
8546.000,0.00091301
8550.000,0.00091284
8553.000,0.00091281
8556.000,0.00091265
8560.000,0.00091223
8563.000,0.000912
8566.000,0.00091151
8570.000,0.00091131
8573.000,0.00091092
8601.000,0.00091099
8605.000,0.00091297
8608.000,0.00091265
8611.000,0.00091249
8614.000,0.00091216
8617.000,0.00091167
8620.000,0.00091115
8646.000,0.00091073
8649.000,0.00091275
8653.000,0.00091314
8656.000,0.0009132
8660.000,0.00091311
8663.000,0.00091265
8666.000,0.00091213
8670.000,0.00091135
8673.000,0.00091105
8699.000,0.00091232
8703.000,0.00091278
8706.000,0.00091278
8709.000,0.00091294
8713.000,0.00091262
8716.000,0.00091219
8719.000,0.00091164
8747.000,0.00091099
8751.000,0.00091226
8754.000,0.00091232
8757.000,0.00091249
8761.000,0.00091255
8764.000,0.00091262
8767.000,0.00091219
8771.000,0.00091177
8799.000,0.00091122
8802.000,0.00091157
8806.000,0.0009117
8809.000,0.00091203
8812.000,0.00091245
8816.000,0.00091216
8819.000,0.00091216
8822.000,0.00091167
8828.000,0.00091125
8832.000,0.00091122
8836.000,0.00091099
8839.000,0.00091024
8842.000,0.0009105
8846.000,0.0009104
8849.000,0.00091099
8853.000,0.00091141
8856.000,0.00091148
8860.000,0.0009119
8863.000,0.00091223
8867.000,0.00091245
8870.000,0.00091252
8874.000,0.00091232
8899.000,0.00091082
8903.000,0.00091095
8906.000,0.00091141
8909.000,0.00091148
8913.000,0.00091196
8916.000,0.00091239
8919.000,0.00091304
8923.000,0.00091262
8948.000,0.00091245
8953.000,0.0009102
8956.000,0.00091037
8959.000,0.00091079
8962.000,0.00091095
8966.000,0.00091164
8969.000,0.00091196
8972.000,0.00091255
9000.000,0.00091271
9006.000,0.00091027
9009.000,0.00091076
9013.000,0.00091099
9016.000,0.00091131
9020.000,0.00091164
9023.000,0.0009119
9048.000,0.00091017
9052.000,0.00090975
9055.000,0.00090998
9058.000,0.00090994
9061.000,0.00091047
9065.000,0.00091066
9068.000,0.00091089
9072.000,0.0009117
9097.000,0.00091187
9100.000,0.00091082
9104.000,0.00091037
9107.000,0.0009103
9110.000,0.00091034
9114.000,0.00091089
9117.000,0.00091112
9122.000,0.00091154
9126.000,0.0009117
9129.000,0.00091223
9133.000,0.00091252
9136.000,0.00091252
9140.000,0.00091258
9143.000,0.00091206
9146.000,0.00091216
9150.000,0.00091164
9153.000,0.00091167
9157.000,0.00091095
9160.000,0.00091086
9163.000,0.00091095
9167.000,0.00091102
9170.000,0.00091115
9174.000,0.00091174
9201.000,0.00091232
9205.000,0.00091203
9208.000,0.00091193
9211.000,0.00091174
9215.000,0.00091154
9218.000,0.00091131
9221.000,0.00091148
9247.000,0.00091174
9250.000,0.00091346
9254.000,0.00091311
9260.000,0.00091265
9264.000,0.00091206
9267.000,0.0009117
9271.000,0.00091131
9297.000,0.00091151
9301.000,0.00091356
9304.000,0.00091359
9307.000,0.00091317
9311.000,0.00091297
9314.000,0.00091255
9318.000,0.00091229
9321.000,0.0009118
9347.000,0.00091177
9350.000,0.00091412
9354.000,0.00091402
9357.000,0.00091369
9361.000,0.00091356
9364.000,0.00091317
9367.000,0.00091278
9371.000,0.00091232
9401.000,0.00091196
9405.000,0.00091398
9408.000,0.0009133
9411.000,0.00091346
9415.000,0.00091343
9418.000,0.00091317
9421.000,0.00091291
9436.000,0.00091223
9439.000,0.00091236
9443.000,0.00091239
9456.000,0.00091304
9460.000,0.00091392
9463.000,0.0009134
9467.000,0.0009133
9470.000,0.00091297
9473.000,0.00091291
9501.000,0.00091291
9505.000,0.00091333
9508.000,0.00091379
9514.000,0.00091356
9517.000,0.00091307
9521.000,0.00091311
9546.000,0.00091304
9550.000,0.00091206
9554.000,0.00091226
9557.000,0.00091304
9561.000,0.00091337
9564.000,0.00091353
9568.000,0.0009135
9571.000,0.0009135
9600.000,0.0009133
9603.000,0.0009117
9607.000,0.00091226
9610.000,0.00091252
9614.000,0.0009133
9617.000,0.00091359
9620.000,0.00091372
9624.000,0.00091356
9649.000,0.00091122
9652.000,0.00091141
9655.000,0.00091151
9659.000,0.00091187
9662.000,0.00091278
9666.000,0.00091327
9669.000,0.00091359
9673.000,0.00091314
9698.000,0.00091307
9702.000,0.00091141
9705.000,0.00091161
9708.000,0.0009117
9711.000,0.00091213
9715.000,0.00091236
9718.000,0.00091314
9722.000,0.00091346
9726.000,0.0009133
9729.000,0.00091324
9733.000,0.00091271
9736.000,0.00091291
9740.000,0.00091223
9744.000,0.00091164
9748.000,0.00091105
9751.000,0.00091095
9755.000,0.00091118
9758.000,0.00091151
9762.000,0.00091187
9768.000,0.00091278
9771.000,0.00091311
9799.000,0.00091346
9803.000,0.00091144
9807.000,0.0009118
9810.000,0.0009117
9814.000,0.00091177
9817.000,0.00091223
9821.000,0.00091304
9846.000,0.00091311
9849.000,0.0009118
9854.000,0.00091187
9857.000,0.00091203
9860.000,0.0009119
9864.000,0.00091196
9867.000,0.00091268
9871.000,0.00091284
9899.000,0.00091304
9902.000,0.00091236
9905.000,0.00091203
9909.000,0.0009119
9912.000,0.00091223
9915.000,0.00091229
9919.000,0.00091223
9922.000,0.00091236
9948.000,0.00091317
9951.000,0.00091301
9955.000,0.00091307
9958.000,0.00091265
9961.000,0.00091288
9965.000,0.00091268
9968.000,0.00091255
9972.000,0.00091275
9999.000,0.00091262
